   4  ,noaa_18_hirs_04.flt
Number of data points:
369
Wavenumber (cm-1)   Filter response
      686.300000       0.000000
      686.400000       0.000983
      686.500000       0.000893
      686.600000       0.000971
      686.700000       0.001288
      686.800000       0.001887
      686.900000       0.002771
      687.000000       0.003891
      687.100000       0.005152
      687.200000       0.006424
      687.300000       0.007574
      687.400000       0.006097
      687.500000       0.006451
      687.600000       0.006796
      687.700000       0.007112
      687.800000       0.007375
      687.900000       0.007564
      688.000000       0.007666
      688.100000       0.007681
      688.200000       0.007621
      688.300000       0.007515
      688.400000       0.007405
      688.500000       0.007337
      688.600000       0.007355
      688.700000       0.007496
      688.800000       0.007778
      688.900000       0.008201
      689.000000       0.008746
      689.100000       0.009378
      689.200000       0.010056
      689.300000       0.010738
      689.400000       0.011394
      689.500000       0.012009
      689.600000       0.012589
      689.700000       0.013158
      689.800000       0.013755
      689.900000       0.014423
      690.000000       0.015204
      690.100000       0.016113
      690.200000       0.017172
      690.300000       0.018369
      690.400000       0.019675
      690.500000       0.021047
      690.600000       0.022435
      690.700000       0.023795
      690.800000       0.025099
      690.900000       0.026336
      691.000000       0.027518
      691.100000       0.028677
      691.200000       0.029858
      691.300000       0.031114
      691.400000       0.032496
      691.500000       0.034043
      691.600000       0.035783
      691.700000       0.038129
      691.800000       0.039822
      691.900000       0.041411
      692.000000       0.043031
      692.100000       0.044818
      692.200000       0.046861
      692.300000       0.049208
      692.400000       0.051863
      692.500000       0.054797
      692.600000       0.057976
      692.700000       0.061369
      692.800000       0.064987
      692.900000       0.068879
      693.000000       0.073139
      693.100000       0.077886
      693.200000       0.083244
      693.300000       0.089316
      693.400000       0.096161
      693.500000       0.103780
      693.600000       0.112130
      693.700000       0.121100
      693.800000       0.130580
      693.900000       0.140470
      694.000000       0.150720
      694.100000       0.161320
      694.200000       0.172380
      694.300000       0.184040
      694.400000       0.196510
      694.500000       0.210060
      694.600000       0.224890
      694.700000       0.241190
      694.800000       0.259070
      694.900000       0.278540
      695.000000       0.299530
      695.100000       0.321900
      695.200000       0.345450
      695.300000       0.369970
      695.400000       0.395240
      695.500000       0.421080
      695.600000       0.447350
      695.700000       0.473950
      695.800000       0.500820
      695.900000       0.527920
      696.000000       0.555200
      696.100000       0.582570
      696.200000       0.609960
      696.300000       0.637230
      696.400000       0.664230
      696.500000       0.690770
      696.600000       0.716630
      696.700000       0.741630
      696.800000       0.765590
      696.900000       0.788380
      697.000000       0.809900
      697.100000       0.830070
      697.200000       0.848840
      697.300000       0.866190
      697.400000       0.882080
      697.500000       0.896480
      697.600000       0.909350
      697.700000       0.920640
      697.800000       0.930310
      697.900000       0.938340
      698.000000       0.944730
      698.100000       0.949260
      698.200000       0.952240
      698.300000       0.953780
      698.400000       0.954050
      698.500000       0.953190
      698.600000       0.951410
      698.700000       0.948900
      698.800000       0.945860
      698.900000       0.942460
      699.000000       0.938840
      699.100000       0.935100
      699.200000       0.931310
      699.300000       0.927500
      699.400000       0.923690
      699.500000       0.919860
      699.600000       0.916000
      699.700000       0.912120
      699.800000       0.908220
      699.900000       0.904380
      700.000000       0.900640
      700.100000       0.897210
      700.200000       0.894110
      700.300000       0.891500
      700.400000       0.889430
      700.500000       0.887970
      700.600000       0.887170
      700.700000       0.887010
      700.800000       0.887460
      700.900000       0.888430
      701.000000       0.889810
      701.100000       0.891500
      701.200000       0.893390
      701.300000       0.895420
      701.400000       0.897560
      701.500000       0.899800
      701.600000       0.902190
      701.700000       0.904790
      701.800000       0.907660
      701.900000       0.910860
      702.000000       0.914410
      702.100000       0.918230
      702.200000       0.922350
      702.300000       0.926670
      702.400000       0.931080
      702.500000       0.935450
      702.600000       0.939680
      702.700000       0.943660
      702.800000       0.947370
      702.900000       0.950790
      703.000000       0.953960
      703.100000       0.956940
      703.200000       0.959800
      703.300000       0.962590
      703.400000       0.965360
      703.500000       0.968110
      703.600000       0.970830
      703.700000       0.973480
      703.800000       0.975980
      703.900000       0.978260
      704.000000       0.980270
      704.100000       0.981820
      704.200000       0.983040
      704.300000       0.983940
      704.400000       0.984550
      704.500000       0.984900
      704.600000       0.985040
      704.700000       0.984990
      704.800000       0.984740
      704.900000       0.984300
      705.000000       0.983630
      705.100000       0.982710
      705.200000       0.981510
      705.300000       0.980040
      705.400000       0.978320
      705.500000       0.976390
      705.600000       0.974330
      705.700000       0.972220
      705.800000       0.970150
      705.900000       0.968210
      706.000000       0.966460
      706.100000       0.965070
      706.200000       0.963920
      706.300000       0.963010
      706.400000       0.962320
      706.500000       0.961830
      706.600000       0.961530
      706.700000       0.961430
      706.800000       0.961530
      706.900000       0.961880
      707.000000       0.962510
      707.100000       0.963470
      707.200000       0.964780
      707.300000       0.966450
      707.400000       0.968470
      707.500000       0.970790
      707.600000       0.973360
      707.700000       0.976090
      707.800000       0.978910
      707.900000       0.981750
      708.000000       0.984520
      708.100000       0.987200
      708.200000       0.989760
      708.300000       0.992170
      708.400000       0.994390
      708.500000       0.996380
      708.600000       0.998050
      708.700000       0.999300
      708.800000       1.000000
      708.900000       0.999980
      709.000000       0.999050
      709.100000       0.997040
      709.200000       0.993780
      709.300000       0.989100
      709.400000       0.982900
      709.500000       0.975080
      709.600000       0.965610
      709.700000       0.954470
      709.800000       0.941690
      709.900000       0.927310
      710.000000       0.911410
      710.100000       0.893910
      710.200000       0.875060
      710.300000       0.854950
      710.400000       0.833680
      710.500000       0.811340
      710.600000       0.788020
      710.700000       0.763820
      710.800000       0.738810
      710.900000       0.713120
      711.000000       0.686820
      711.100000       0.660020
      711.200000       0.632830
      711.300000       0.605360
      711.400000       0.577740
      711.500000       0.550090
      711.600000       0.522540
      711.700000       0.495220
      711.800000       0.468270
      711.900000       0.441780
      712.000000       0.415900
      712.100000       0.390690
      712.200000       0.366260
      712.300000       0.342690
      712.400000       0.320030
      712.500000       0.298330
      712.600000       0.277640
      712.700000       0.258010
      712.800000       0.239480
      712.900000       0.222090
      713.000000       0.205900
      713.100000       0.190940
      713.200000       0.177210
      713.300000       0.164710
      713.400000       0.153410
      713.500000       0.143220
      713.600000       0.134050
      713.700000       0.125750
      713.800000       0.118190
      713.900000       0.111210
      714.000000       0.104670
      714.100000       0.098421
      714.200000       0.092390
      714.300000       0.086520
      714.400000       0.080791
      714.500000       0.075214
      714.600000       0.069830
      714.700000       0.064694
      714.800000       0.059869
      714.900000       0.055415
      715.000000       0.051377
      715.100000       0.047780
      715.200000       0.044624
      715.300000       0.044234
      715.400000       0.040537
      715.500000       0.038700
      715.600000       0.037416
      715.700000       0.034742
      715.800000       0.032828
      715.900000       0.031402
      716.000000       0.030187
      716.100000       0.028901
      716.200000       0.027513
      716.300000       0.026257
      716.400000       0.025097
      716.500000       0.023995
      716.600000       0.022921
      716.700000       0.021850
      716.800000       0.020770
      716.900000       0.019681
      717.000000       0.018597
      717.100000       0.017543
      717.200000       0.016547
      717.300000       0.015638
      717.400000       0.014840
      717.500000       0.014164
      717.600000       0.013606
      717.700000       0.013149
      717.800000       0.012761
      717.900000       0.012400
      718.000000       0.012027
      718.100000       0.011605
      718.200000       0.011113
      718.300000       0.010547
      718.400000       0.009921
      718.500000       0.009267
      718.600000       0.008627
      718.700000       0.008046
      718.800000       0.007564
      718.900000       0.007207
      719.000000       0.006981
      719.100000       0.006871
      719.200000       0.006842
      719.300000       0.006847
      719.400000       0.006830
      719.500000       0.006745
      719.600000       0.006558
      719.700000       0.006255
      719.800000       0.005847
      719.900000       0.005365
      720.000000       0.004860
      720.100000       0.004386
      720.200000       0.003996
      720.300000       0.003730
      720.400000       0.003608
      720.500000       0.003628
      720.600000       0.003764
      720.700000       0.003975
      720.800000       0.004213
      720.900000       0.004429
      721.000000       0.004585
      721.100000       0.004657
      721.200000       0.004641
      721.300000       0.004552
      721.400000       0.004414
      721.500000       0.004260
      721.600000       0.004120
      721.700000       0.004017
      721.800000       0.003960
      721.900000       0.003798
      722.000000       0.003638
      722.100000       0.003467
      722.200000       0.003304
      722.300000       0.003146
      722.400000       0.002985
      722.500000       0.002832
      722.600000       0.002495
      722.700000       0.002137
      722.800000       0.001843
      722.900000       0.001573
      723.000000       0.001319
      723.100000       0.000000
