   8  ,noaa_18_hirs_08.flt
Number of data points:
649
Wavenumber (cm-1)   Filter response
      868.680000       0.000000
      868.780000       0.001666
      868.880000       0.002754
      868.980000       0.002716
      869.080000       0.002674
      869.180000       0.002630
      869.280000       0.002590
      869.380000       0.002559
      869.480000       0.002541
      869.580000       0.002543
      869.680000       0.002568
      869.780000       0.002621
      869.880000       0.002704
      869.980000       0.002820
      870.080000       0.002969
      870.180000       0.003151
      870.280000       0.003363
      870.380000       0.003602
      870.480000       0.003865
      870.580000       0.004145
      870.680000       0.004437
      870.780000       0.004738
      870.880000       0.005040
      870.980000       0.005340
      871.080000       0.005635
      871.180000       0.005921
      871.280000       0.006198
      871.380000       0.006465
      871.480000       0.006725
      871.580000       0.006978
      871.680000       0.007229
      871.780000       0.007482
      871.880000       0.007742
      871.980000       0.008013
      872.080000       0.008300
      872.180000       0.008608
      872.280000       0.008939
      872.380000       0.009295
      872.480000       0.009679
      872.580000       0.010089
      872.680000       0.010526
      872.780000       0.010987
      872.880000       0.011470
      872.980000       0.011973
      873.080000       0.012490
      873.180000       0.013020
      873.280000       0.013560
      873.380000       0.014107
      873.480000       0.014660
      873.580000       0.015218
      873.680000       0.015783
      873.780000       0.016356
      873.880000       0.016941
      873.980000       0.017542
      874.080000       0.018160
      874.180000       0.018802
      874.280000       0.019474
      874.380000       0.020180
      874.480000       0.020924
      874.580000       0.021711
      874.680000       0.022542
      874.780000       0.023421
      874.880000       0.024346
      874.980000       0.025317
      875.080000       0.026334
      875.180000       0.027392
      875.280000       0.028490
      875.380000       0.029623
      875.480000       0.030789
      875.580000       0.031983
      875.680000       0.033204
      875.780000       0.034448
      875.880000       0.035716
      875.980000       0.034406
      876.080000       0.035519
      876.180000       0.036742
      876.280000       0.038075
      876.380000       0.039515
      876.480000       0.041053
      876.580000       0.042679
      876.680000       0.044379
      876.780000       0.046139
      876.880000       0.047948
      876.980000       0.049795
      877.080000       0.051671
      877.180000       0.053575
      877.280000       0.055505
      877.380000       0.057469
      877.480000       0.059475
      877.580000       0.061539
      877.680000       0.063679
      877.780000       0.065916
      877.880000       0.068272
      877.980000       0.070771
      878.080000       0.073432
      878.180000       0.076280
      878.280000       0.079332
      878.380000       0.082607
      878.480000       0.086114
      878.580000       0.089861
      878.680000       0.093852
      878.780000       0.098088
      878.880000       0.102560
      878.980000       0.107270
      879.080000       0.112200
      879.180000       0.117350
      879.280000       0.122710
      879.380000       0.128260
      879.480000       0.134000
      879.580000       0.139930
      879.680000       0.146040
      879.780000       0.152330
      879.880000       0.158800
      879.980000       0.165460
      880.080000       0.172340
      880.180000       0.179430
      880.280000       0.186740
      880.380000       0.194280
      880.480000       0.202050
      880.580000       0.210080
      880.680000       0.218370
      880.780000       0.226930
      880.880000       0.235750
      880.980000       0.244860
      881.080000       0.254240
      881.180000       0.263900
      881.280000       0.273840
      881.380000       0.284050
      881.480000       0.294520
      881.580000       0.305260
      881.680000       0.316250
      881.780000       0.327490
      881.880000       0.338970
      881.980000       0.350680
      882.080000       0.362570
      882.180000       0.374660
      882.280000       0.386960
      882.380000       0.399460
      882.480000       0.412170
      882.580000       0.425060
      882.680000       0.438130
      882.780000       0.451370
      882.880000       0.464770
      882.980000       0.478300
      883.080000       0.491960
      883.180000       0.505730
      883.280000       0.519570
      883.380000       0.533470
      883.480000       0.547400
      883.580000       0.561330
      883.680000       0.575230
      883.780000       0.589080
      883.880000       0.602850
      883.980000       0.616530
      884.080000       0.630130
      884.180000       0.643610
      884.280000       0.656920
      884.380000       0.670050
      884.480000       0.682980
      884.580000       0.695700
      884.680000       0.708190
      884.780000       0.720450
      884.880000       0.732470
      884.980000       0.744250
      885.080000       0.755760
      885.180000       0.767010
      885.280000       0.777990
      885.380000       0.788700
      885.480000       0.799130
      885.580000       0.809270
      885.680000       0.819110
      885.780000       0.828660
      885.880000       0.837890
      885.980000       0.846820
      886.080000       0.855290
      886.180000       0.863410
      886.280000       0.871210
      886.380000       0.878680
      886.480000       0.885820
      886.580000       0.892640
      886.680000       0.899140
      886.780000       0.905330
      886.880000       0.911220
      886.980000       0.916820
      887.080000       0.922150
      887.180000       0.927210
      887.280000       0.932010
      887.380000       0.936580
      887.480000       0.940920
      887.580000       0.945050
      887.680000       0.948960
      887.780000       0.952660
      887.880000       0.956170
      887.980000       0.959480
      888.080000       0.962680
      888.180000       0.965700
      888.280000       0.968530
      888.380000       0.971180
      888.480000       0.973630
      888.580000       0.975900
      888.680000       0.977990
      888.780000       0.979900
      888.880000       0.981640
      888.980000       0.983230
      889.080000       0.984670
      889.180000       0.985970
      889.280000       0.987160
      889.380000       0.988240
      889.480000       0.989250
      889.580000       0.990180
      889.680000       0.991050
      889.780000       0.991880
      889.880000       0.992680
      889.980000       0.993450
      890.080000       0.994170
      890.180000       0.994860
      890.280000       0.995530
      890.380000       0.996180
      890.480000       0.996810
      890.580000       0.997390
      890.680000       0.997930
      890.780000       0.998420
      890.880000       0.998850
      890.980000       0.999210
      891.080000       0.999500
      891.180000       0.999710
      891.280000       0.999880
      891.380000       0.999970
      891.480000       1.000000
      891.580000       0.999970
      891.680000       0.999890
      891.780000       0.999790
      891.880000       0.999670
      891.980000       0.999540
      892.080000       0.999350
      892.180000       0.999160
      892.280000       0.999000
      892.380000       0.998880
      892.480000       0.998790
      892.580000       0.998740
      892.680000       0.998710
      892.780000       0.998700
      892.880000       0.998700
      892.980000       0.998690
      893.080000       0.998660
      893.180000       0.998650
      893.280000       0.998610
      893.380000       0.998500
      893.480000       0.998310
      893.580000       0.998030
      893.680000       0.997660
      893.780000       0.997210
      893.880000       0.996690
      893.980000       0.996090
      894.080000       0.995500
      894.180000       0.994880
      894.280000       0.994240
      894.380000       0.993610
      894.480000       0.992990
      894.580000       0.992420
      894.680000       0.991890
      894.780000       0.991430
      894.880000       0.991020
      894.980000       0.990680
      895.080000       0.990430
      895.180000       0.990260
      895.280000       0.990120
      895.380000       0.989990
      895.480000       0.989850
      895.580000       0.989690
      895.680000       0.989470
      895.780000       0.989190
      895.880000       0.988810
      895.980000       0.988340
      896.080000       0.987720
      896.180000       0.986990
      896.280000       0.986150
      896.380000       0.985230
      896.480000       0.984230
      896.580000       0.983200
      896.680000       0.982130
      896.780000       0.981080
      896.880000       0.980050
      896.980000       0.979090
      897.080000       0.978250
      897.180000       0.977510
      897.280000       0.976880
      897.380000       0.976380
      897.480000       0.976000
      897.580000       0.975740
      897.680000       0.975580
      897.780000       0.975510
      897.880000       0.975500
      897.980000       0.975520
      898.080000       0.975550
      898.180000       0.975540
      898.280000       0.975490
      898.380000       0.975360
      898.480000       0.975120
      898.580000       0.974780
      898.680000       0.974310
      898.780000       0.973710
      898.880000       0.972990
      898.980000       0.972200
      899.080000       0.971320
      899.180000       0.970390
      899.280000       0.969410
      899.380000       0.968430
      899.480000       0.967470
      899.580000       0.966570
      899.680000       0.965760
      899.780000       0.965050
      899.880000       0.964480
      899.980000       0.964050
      900.080000       0.963680
      900.180000       0.963450
      900.280000       0.963360
      900.380000       0.963410
      900.480000       0.963560
      900.580000       0.963820
      900.680000       0.964130
      900.780000       0.964490
      900.880000       0.964860
      900.980000       0.965230
      901.080000       0.965550
      901.180000       0.965820
      901.280000       0.966010
      901.380000       0.966120
      901.480000       0.966130
      901.580000       0.966060
      901.680000       0.965900
      901.780000       0.965660
      901.880000       0.965370
      901.980000       0.965020
      902.080000       0.964690
      902.180000       0.964350
      902.280000       0.964030
      902.380000       0.963740
      902.480000       0.963500
      902.580000       0.963320
      902.680000       0.963220
      902.780000       0.963170
      902.880000       0.963160
      902.980000       0.963240
      903.080000       0.963380
      903.180000       0.963590
      903.280000       0.963850
      903.380000       0.964160
      903.480000       0.964500
      903.580000       0.964860
      903.680000       0.965230
      903.780000       0.965590
      903.880000       0.965940
      903.980000       0.966260
      904.080000       0.966600
      904.180000       0.966910
      904.280000       0.967190
      904.380000       0.967450
      904.480000       0.967680
      904.580000       0.967880
      904.680000       0.968070
      904.780000       0.968210
      904.880000       0.968350
      904.980000       0.968480
      905.080000       0.968600
      905.180000       0.968720
      905.280000       0.968820
      905.380000       0.968920
      905.480000       0.969010
      905.580000       0.969070
      905.680000       0.969110
      905.780000       0.969120
      905.880000       0.969090
      905.980000       0.969020
      906.080000       0.968860
      906.180000       0.968640
      906.280000       0.968370
      906.380000       0.968050
      906.480000       0.967690
      906.580000       0.967290
      906.680000       0.966850
      906.780000       0.966400
      906.880000       0.965940
      906.980000       0.965480
      907.080000       0.965060
      907.180000       0.964660
      907.280000       0.964310
      907.380000       0.964010
      907.480000       0.963760
      907.580000       0.963560
      907.680000       0.963420
      907.780000       0.963330
      907.880000       0.963290
      907.980000       0.963280
      908.080000       0.963290
      908.180000       0.963300
      908.280000       0.963320
      908.380000       0.963330
      908.480000       0.963320
      908.580000       0.963270
      908.680000       0.963170
      908.780000       0.963030
      908.880000       0.962850
      908.980000       0.962630
      909.080000       0.962370
      909.180000       0.962090
      909.280000       0.961790
      909.380000       0.961480
      909.480000       0.961170
      909.580000       0.960860
      909.680000       0.960560
      909.780000       0.960290
      909.880000       0.960040
      909.980000       0.959820
      910.080000       0.959610
      910.180000       0.959420
      910.280000       0.959250
      910.380000       0.959080
      910.480000       0.958900
      910.580000       0.958710
      910.680000       0.958500
      910.780000       0.958270
      910.880000       0.958010
      910.980000       0.957730
      911.080000       0.957430
      911.180000       0.957110
      911.280000       0.956790
      911.380000       0.956470
      911.480000       0.956170
      911.580000       0.955910
      911.680000       0.955700
      911.780000       0.955560
      911.880000       0.955500
      911.980000       0.955510
      912.080000       0.955550
      912.180000       0.955660
      912.280000       0.955840
      912.380000       0.956060
      912.480000       0.956310
      912.580000       0.956560
      912.680000       0.956770
      912.780000       0.956920
      912.880000       0.956960
      912.980000       0.956860
      913.080000       0.956580
      913.180000       0.956090
      913.280000       0.955340
      913.380000       0.954330
      913.480000       0.953030
      913.580000       0.951420
      913.680000       0.949500
      913.780000       0.947260
      913.880000       0.944710
      913.980000       0.941860
      914.080000       0.938680
      914.180000       0.935210
      914.280000       0.931460
      914.380000       0.927420
      914.480000       0.923100
      914.580000       0.918500
      914.680000       0.913600
      914.780000       0.908390
      914.880000       0.902840
      914.980000       0.896930
      915.080000       0.890630
      915.180000       0.883900
      915.280000       0.876700
      915.380000       0.868980
      915.480000       0.860720
      915.580000       0.851890
      915.680000       0.842460
      915.780000       0.832420
      915.880000       0.821760
      915.980000       0.810490
      916.080000       0.798720
      916.180000       0.786390
      916.280000       0.773500
      916.380000       0.760070
      916.480000       0.746180
      916.580000       0.731870
      916.680000       0.717200
      916.780000       0.702220
      916.880000       0.686990
      916.980000       0.671540
      917.080000       0.655930
      917.180000       0.640200
      917.280000       0.624380
      917.380000       0.608490
      917.480000       0.592570
      917.580000       0.576630
      917.680000       0.560680
      917.780000       0.544730
      917.880000       0.528800
      917.980000       0.512880
      918.080000       0.497000
      918.180000       0.481170
      918.280000       0.465410
      918.380000       0.449730
      918.480000       0.434160
      918.580000       0.418730
      918.680000       0.403470
      918.780000       0.388410
      918.880000       0.373590
      918.980000       0.359040
      919.080000       0.344800
      919.180000       0.330900
      919.280000       0.317370
      919.380000       0.304220
      919.480000       0.291490
      919.580000       0.279180
      919.680000       0.267290
      919.780000       0.255830
      919.880000       0.244790
      919.980000       0.234160
      920.080000       0.223870
      920.180000       0.213950
      920.280000       0.204390
      920.380000       0.195190
      920.480000       0.186310
      920.580000       0.177740
      920.680000       0.169480
      920.780000       0.161490
      920.880000       0.153790
      920.980000       0.146360
      921.080000       0.139210
      921.180000       0.132330
      921.280000       0.125720
      921.380000       0.119400
      921.480000       0.113360
      921.580000       0.107600
      921.680000       0.102140
      921.780000       0.096970
      921.880000       0.092090
      921.980000       0.087497
      922.080000       0.083199
      922.180000       0.079174
      922.280000       0.075407
      922.380000       0.071884
      922.480000       0.068591
      922.580000       0.065512
      922.680000       0.062629
      922.780000       0.059927
      922.880000       0.057389
      922.980000       0.054998
      923.080000       0.052742
      923.180000       0.050605
      923.280000       0.048574
      923.380000       0.046640
      923.480000       0.044792
      923.580000       0.043020
      923.680000       0.041318
      923.780000       0.039679
      923.880000       0.038097
      923.980000       0.036566
      924.080000       0.035085
      924.180000       0.033649
      924.280000       0.034298
      924.380000       0.032909
      924.480000       0.031585
      924.580000       0.030324
      924.680000       0.029121
      924.780000       0.027972
      924.880000       0.026875
      924.980000       0.025824
      925.080000       0.024817
      925.180000       0.023851
      925.280000       0.022921
      925.380000       0.022024
      925.480000       0.021158
      925.580000       0.020319
      925.680000       0.019507
      925.780000       0.018718
      925.880000       0.017952
      925.980000       0.017209
      926.080000       0.016486
      926.180000       0.015785
      926.280000       0.015108
      926.380000       0.014455
      926.480000       0.013828
      926.580000       0.013227
      926.680000       0.012654
      926.780000       0.012110
      926.880000       0.011594
      926.980000       0.011107
      927.080000       0.010649
      927.180000       0.010217
      927.280000       0.009812
      927.380000       0.009430
      927.480000       0.009070
      927.580000       0.008729
      927.680000       0.008405
      927.780000       0.008096
      927.880000       0.007800
      927.980000       0.007516
      928.080000       0.007243
      928.180000       0.006979
      928.280000       0.006726
      928.380000       0.006483
      928.480000       0.006250
      928.580000       0.006030
      928.680000       0.005823
      928.780000       0.005631
      928.880000       0.005455
      928.980000       0.005295
      929.080000       0.005153
      929.180000       0.005029
      929.280000       0.004920
      929.380000       0.004827
      929.480000       0.004746
      929.580000       0.004675
      929.680000       0.004612
      929.780000       0.004552
      929.880000       0.004493
      929.980000       0.004432
      930.080000       0.004365
      930.180000       0.004290
      930.280000       0.004207
      930.380000       0.004114
      930.480000       0.004011
      930.580000       0.003900
      930.680000       0.003783
      930.780000       0.003661
      930.880000       0.003537
      930.980000       0.003416
      931.080000       0.003299
      931.180000       0.003191
      931.280000       0.003095
      931.380000       0.003011
      931.480000       0.002943
      931.580000       0.002891
      931.680000       0.002854
      931.780000       0.002832
      931.880000       0.002823
      931.980000       0.002336
      932.080000       0.002208
      932.180000       0.002102
      932.280000       0.002028
      932.380000       0.001994
      932.480000       0.001931
      932.580000       0.001898
      932.680000       0.001866
      932.780000       0.001834
      932.880000       0.001801
      932.980000       0.001770
      933.080000       0.001739
      933.180000       0.001707
      933.280000       0.001675
      933.380000       0.001641
      933.480000       0.000000
