   9  ,noaa_18_hirs_09.flt
Number of data points:
701
Wavenumber (cm-1)   Filter response
      993.630000       0.000000
      993.730000       0.001206
      993.830000       0.001228
      993.930000       0.001272
      994.030000       0.001336
      994.130000       0.001417
      994.230000       0.001513
      994.330000       0.001620
      994.430000       0.001733
      994.530000       0.001850
      994.630000       0.001968
      994.730000       0.002083
      994.830000       0.002197
      994.930000       0.002306
      995.030000       0.002411
      995.130000       0.002512
      995.230000       0.002610
      995.330000       0.002705
      995.430000       0.002797
      995.530000       0.002888
      995.630000       0.002977
      995.730000       0.003066
      995.830000       0.003154
      995.930000       0.003243
      996.030000       0.003331
      996.130000       0.003417
      996.230000       0.003501
      996.330000       0.003581
      996.430000       0.003653
      996.530000       0.003715
      996.630000       0.003765
      996.730000       0.003798
      996.830000       0.003814
      996.930000       0.003812
      997.030000       0.003789
      997.130000       0.003749
      997.230000       0.003693
      997.330000       0.003623
      997.430000       0.003543
      997.530000       0.003459
      997.630000       0.003375
      997.730000       0.003297
      997.830000       0.003228
      997.930000       0.003174
      998.030000       0.003138
      998.130000       0.003124
      998.230000       0.003134
      998.330000       0.003169
      998.430000       0.003229
      998.530000       0.003314
      998.630000       0.003421
      998.730000       0.003546
      998.830000       0.003685
      998.930000       0.003832
      999.030000       0.003983
      999.130000       0.004131
      999.230000       0.004273
      999.330000       0.004405
      999.430000       0.004525
      999.530000       0.004633
      999.630000       0.004729
      999.730000       0.004816
      999.830000       0.004896
      999.930000       0.004975
     1000.000000       0.005057
     1000.100000       0.005148
     1000.200000       0.005252
     1000.300000       0.005376
     1000.400000       0.005524
     1000.500000       0.005700
     1000.600000       0.005905
     1000.700000       0.006141
     1000.800000       0.006406
     1000.900000       0.006699
     1001.000000       0.007014
     1001.100000       0.007345
     1001.200000       0.007685
     1001.300000       0.008025
     1001.400000       0.008358
     1001.500000       0.008676
     1001.600000       0.008970
     1001.700000       0.009235
     1001.800000       0.009466
     1001.900000       0.009661
     1002.000000       0.009817
     1002.100000       0.009900
     1002.200000       0.010025
     1002.300000       0.010085
     1002.400000       0.010124
     1002.500000       0.010151
     1002.600000       0.010175
     1002.700000       0.010204
     1002.800000       0.010249
     1002.900000       0.010318
     1003.000000       0.010420
     1003.100000       0.010559
     1003.200000       0.010741
     1003.300000       0.010969
     1003.400000       0.011242
     1003.500000       0.011559
     1003.600000       0.011916
     1003.700000       0.012307
     1003.800000       0.012725
     1003.900000       0.013163
     1004.000000       0.013613
     1004.100000       0.014066
     1004.200000       0.014515
     1004.300000       0.014953
     1004.400000       0.015375
     1004.500000       0.015776
     1004.600000       0.016153
     1004.700000       0.016507
     1004.800000       0.016837
     1004.900000       0.017145
     1005.000000       0.017436
     1005.100000       0.017714
     1005.200000       0.017985
     1005.300000       0.018255
     1005.400000       0.018531
     1005.500000       0.018817
     1005.600000       0.019122
     1005.700000       0.019449
     1005.800000       0.019802
     1005.900000       0.020186
     1006.000000       0.020602
     1006.100000       0.021053
     1006.200000       0.021539
     1006.300000       0.022059
     1006.400000       0.022612
     1006.500000       0.023197
     1006.600000       0.023813
     1006.700000       0.024457
     1006.800000       0.025128
     1006.900000       0.025824
     1007.000000       0.026542
     1007.100000       0.027280
     1007.200000       0.028038
     1007.300000       0.028814
     1007.400000       0.029606
     1007.500000       0.030412
     1007.600000       0.031233
     1007.700000       0.032067
     1007.800000       0.032913
     1007.900000       0.033772
     1008.000000       0.034641
     1008.100000       0.035519
     1008.200000       0.036411
     1008.300000       0.037316
     1008.400000       0.038238
     1008.500000       0.039178
     1008.600000       0.040142
     1008.700000       0.041133
     1008.800000       0.042157
     1008.900000       0.043220
     1009.000000       0.044327
     1009.100000       0.045486
     1009.200000       0.046702
     1009.300000       0.047981
     1009.400000       0.049330
     1009.500000       0.050751
     1009.600000       0.052249
     1009.700000       0.053825
     1009.800000       0.055480
     1009.900000       0.057210
     1010.000000       0.059014
     1010.100000       0.060885
     1010.200000       0.062819
     1010.300000       0.064809
     1010.400000       0.066847
     1010.500000       0.068925
     1010.600000       0.071037
     1010.700000       0.073177
     1010.800000       0.075338
     1010.900000       0.077518
     1011.000000       0.079718
     1011.100000       0.081941
     1011.200000       0.084191
     1011.300000       0.086475
     1011.400000       0.088803
     1011.500000       0.091186
     1011.600000       0.093639
     1011.700000       0.096176
     1011.800000       0.098812
     1011.900000       0.101560
     1012.000000       0.104430
     1012.100000       0.107430
     1012.200000       0.110590
     1012.300000       0.113900
     1012.400000       0.117370
     1012.500000       0.121010
     1012.600000       0.124810
     1012.700000       0.128780
     1012.800000       0.132900
     1012.900000       0.137170
     1013.000000       0.141570
     1013.100000       0.146110
     1013.200000       0.150770
     1013.300000       0.155540
     1013.400000       0.160400
     1013.500000       0.165370
     1013.600000       0.170420
     1013.700000       0.175560
     1013.800000       0.180800
     1013.900000       0.186120
     1014.000000       0.191550
     1014.100000       0.197100
     1014.200000       0.202760
     1014.300000       0.208550
     1014.400000       0.214470
     1014.500000       0.220540
     1014.600000       0.226770
     1014.700000       0.233180
     1014.800000       0.239770
     1014.900000       0.246530
     1015.000000       0.253470
     1015.100000       0.260590
     1015.200000       0.267900
     1015.300000       0.275380
     1015.400000       0.283030
     1015.500000       0.290840
     1015.600000       0.298820
     1015.700000       0.306950
     1015.800000       0.315220
     1015.900000       0.323630
     1016.000000       0.332180
     1016.100000       0.340840
     1016.200000       0.349630
     1016.300000       0.358550
     1016.400000       0.367590
     1016.500000       0.376770
     1016.600000       0.386080
     1016.700000       0.395520
     1016.800000       0.405090
     1016.900000       0.414790
     1017.000000       0.424610
     1017.100000       0.434560
     1017.200000       0.444620
     1017.300000       0.454780
     1017.400000       0.465040
     1017.500000       0.475390
     1017.600000       0.485800
     1017.700000       0.496270
     1017.800000       0.506780
     1017.900000       0.517310
     1018.000000       0.527830
     1018.100000       0.538290
     1018.200000       0.548720
     1018.300000       0.559110
     1018.400000       0.569470
     1018.500000       0.579770
     1018.600000       0.590020
     1018.700000       0.600200
     1018.800000       0.610320
     1018.900000       0.620380
     1019.000000       0.630370
     1019.100000       0.640290
     1019.200000       0.650150
     1019.300000       0.659940
     1019.400000       0.669660
     1019.500000       0.679310
     1019.600000       0.688870
     1019.700000       0.698340
     1019.800000       0.707720
     1019.900000       0.716980
     1020.000000       0.726170
     1020.100000       0.735370
     1020.200000       0.744420
     1020.300000       0.753300
     1020.400000       0.762010
     1020.500000       0.770540
     1020.600000       0.778860
     1020.700000       0.786980
     1020.800000       0.794880
     1020.900000       0.802560
     1021.000000       0.810040
     1021.100000       0.817300
     1021.200000       0.824360
     1021.300000       0.831230
     1021.400000       0.837910
     1021.500000       0.844420
     1021.600000       0.850770
     1021.700000       0.856970
     1021.800000       0.863020
     1021.900000       0.868950
     1022.000000       0.874690
     1022.100000       0.880170
     1022.200000       0.885520
     1022.300000       0.890750
     1022.400000       0.895870
     1022.500000       0.900850
     1022.600000       0.905690
     1022.700000       0.910390
     1022.800000       0.914940
     1022.900000       0.919330
     1023.000000       0.923560
     1023.100000       0.927630
     1023.200000       0.931520
     1023.300000       0.935250
     1023.400000       0.938820
     1023.500000       0.942220
     1023.600000       0.945480
     1023.700000       0.948590
     1023.800000       0.951570
     1023.900000       0.954420
     1024.000000       0.957180
     1024.100000       0.959880
     1024.200000       0.962490
     1024.300000       0.964990
     1024.400000       0.967390
     1024.500000       0.969730
     1024.600000       0.972000
     1024.700000       0.974200
     1024.800000       0.976320
     1024.900000       0.978380
     1025.000000       0.980360
     1025.100000       0.982250
     1025.200000       0.984060
     1025.300000       0.985770
     1025.400000       0.987390
     1025.500000       0.988900
     1025.600000       0.990310
     1025.700000       0.991610
     1025.800000       0.992800
     1025.900000       0.993890
     1026.000000       0.994860
     1026.100000       0.995670
     1026.200000       0.996400
     1026.300000       0.997040
     1026.400000       0.997610
     1026.500000       0.998110
     1026.600000       0.998550
     1026.700000       0.998920
     1026.800000       0.999230
     1026.900000       0.999500
     1027.000000       0.999700
     1027.100000       0.999860
     1027.200000       0.999960
     1027.300000       1.000000
     1027.400000       0.999970
     1027.500000       0.999870
     1027.600000       0.999690
     1027.700000       0.999430
     1027.800000       0.999080
     1027.900000       0.998640
     1028.000000       0.998150
     1028.100000       0.997650
     1028.200000       0.997070
     1028.300000       0.996410
     1028.400000       0.995660
     1028.500000       0.994820
     1028.600000       0.993910
     1028.700000       0.992920
     1028.800000       0.991860
     1028.900000       0.990730
     1029.000000       0.989550
     1029.100000       0.988310
     1029.200000       0.987020
     1029.300000       0.985680
     1029.400000       0.984280
     1029.500000       0.982830
     1029.600000       0.981330
     1029.700000       0.979760
     1029.800000       0.978140
     1029.900000       0.976440
     1030.000000       0.974670
     1030.100000       0.972840
     1030.200000       0.970930
     1030.300000       0.968930
     1030.400000       0.966840
     1030.500000       0.964650
     1030.600000       0.962370
     1030.700000       0.959990
     1030.800000       0.957520
     1030.900000       0.954940
     1031.000000       0.952270
     1031.100000       0.949500
     1031.200000       0.946640
     1031.300000       0.943690
     1031.400000       0.940660
     1031.500000       0.937540
     1031.600000       0.934340
     1031.700000       0.931060
     1031.800000       0.927700
     1031.900000       0.924280
     1032.000000       0.920770
     1032.100000       0.917150
     1032.200000       0.913480
     1032.300000       0.909740
     1032.400000       0.905930
     1032.500000       0.902080
     1032.600000       0.898170
     1032.700000       0.894200
     1032.800000       0.890200
     1032.900000       0.886140
     1033.000000       0.882040
     1033.100000       0.877900
     1033.200000       0.873720
     1033.300000       0.869500
     1033.400000       0.865240
     1033.500000       0.860930
     1033.600000       0.856580
     1033.700000       0.852180
     1033.800000       0.847730
     1033.900000       0.843220
     1034.000000       0.838700
     1034.100000       0.834170
     1034.200000       0.829560
     1034.300000       0.824870
     1034.400000       0.820090
     1034.500000       0.815220
     1034.600000       0.810250
     1034.700000       0.805190
     1034.800000       0.800050
     1034.900000       0.794810
     1035.000000       0.789490
     1035.100000       0.784100
     1035.200000       0.778650
     1035.300000       0.773140
     1035.400000       0.767590
     1035.500000       0.762010
     1035.600000       0.756400
     1035.700000       0.750780
     1035.800000       0.745150
     1035.900000       0.739530
     1036.000000       0.733900
     1036.100000       0.728230
     1036.200000       0.722570
     1036.300000       0.716920
     1036.400000       0.711280
     1036.500000       0.705640
     1036.600000       0.700000
     1036.700000       0.694350
     1036.800000       0.688680
     1036.900000       0.682980
     1037.000000       0.677240
     1037.100000       0.671470
     1037.200000       0.665640
     1037.300000       0.659760
     1037.400000       0.653830
     1037.500000       0.647830
     1037.600000       0.641780
     1037.700000       0.635680
     1037.800000       0.629520
     1037.900000       0.623310
     1038.000000       0.617050
     1038.100000       0.610730
     1038.200000       0.604400
     1038.300000       0.598040
     1038.400000       0.591690
     1038.500000       0.585340
     1038.600000       0.578990
     1038.700000       0.572660
     1038.800000       0.566350
     1038.900000       0.560050
     1039.000000       0.553770
     1039.100000       0.547500
     1039.200000       0.541250
     1039.300000       0.535020
     1039.400000       0.528790
     1039.500000       0.522570
     1039.600000       0.516360
     1039.700000       0.510150
     1039.800000       0.503950
     1039.900000       0.497740
     1040.000000       0.491520
     1040.100000       0.485310
     1040.200000       0.479080
     1040.300000       0.472850
     1040.400000       0.466620
     1040.500000       0.460380
     1040.600000       0.454140
     1040.700000       0.447910
     1040.800000       0.441680
     1040.900000       0.435450
     1041.000000       0.429240
     1041.100000       0.423050
     1041.200000       0.416880
     1041.300000       0.410730
     1041.400000       0.404610
     1041.500000       0.398520
     1041.600000       0.392460
     1041.700000       0.386450
     1041.800000       0.380480
     1041.900000       0.374550
     1042.000000       0.368680
     1042.100000       0.362880
     1042.200000       0.357140
     1042.300000       0.351440
     1042.400000       0.345780
     1042.500000       0.340180
     1042.600000       0.334610
     1042.700000       0.329100
     1042.800000       0.323620
     1042.900000       0.318180
     1043.000000       0.312780
     1043.100000       0.307410
     1043.200000       0.302070
     1043.300000       0.296750
     1043.400000       0.291450
     1043.500000       0.286170
     1043.600000       0.280910
     1043.700000       0.275670
     1043.800000       0.270440
     1043.900000       0.265230
     1044.000000       0.260050
     1044.100000       0.254880
     1044.200000       0.249760
     1044.300000       0.244670
     1044.400000       0.239630
     1044.500000       0.234660
     1044.600000       0.229740
     1044.700000       0.224900
     1044.800000       0.220140
     1044.900000       0.215460
     1045.000000       0.210860
     1045.100000       0.206350
     1045.200000       0.201930
     1045.300000       0.197600
     1045.400000       0.193350
     1045.500000       0.189170
     1045.600000       0.185070
     1045.700000       0.181020
     1045.800000       0.177030
     1045.900000       0.173090
     1046.000000       0.169180
     1046.100000       0.165300
     1046.200000       0.161450
     1046.300000       0.157610
     1046.400000       0.153790
     1046.500000       0.149980
     1046.600000       0.146180
     1046.700000       0.142410
     1046.800000       0.138660
     1046.900000       0.134950
     1047.000000       0.131280
     1047.100000       0.127660
     1047.200000       0.124110
     1047.300000       0.120640
     1047.400000       0.117250
     1047.500000       0.113960
     1047.600000       0.110760
     1047.700000       0.107680
     1047.800000       0.104710
     1047.900000       0.101850
     1048.000000       0.099090
     1048.100000       0.096434
     1048.200000       0.093877
     1048.300000       0.091412
     1048.400000       0.089029
     1048.500000       0.086720
     1048.600000       0.084472
     1048.700000       0.082277
     1048.800000       0.080124
     1048.900000       0.078005
     1049.000000       0.075914
     1049.100000       0.073846
     1049.200000       0.071797
     1049.300000       0.069768
     1049.400000       0.067757
     1049.500000       0.065769
     1049.600000       0.063809
     1049.700000       0.061882
     1049.800000       0.059995
     1049.900000       0.058154
     1050.000000       0.056367
     1050.100000       0.054638
     1050.200000       0.052973
     1050.300000       0.051377
     1050.400000       0.049852
     1050.500000       0.048398
     1050.600000       0.047014
     1050.700000       0.045697
     1050.800000       0.044443
     1050.900000       0.043246
     1051.000000       0.042099
     1051.100000       0.040994
     1051.200000       0.039925
     1051.300000       0.038881
     1051.400000       0.037857
     1051.500000       0.036846
     1051.600000       0.035842
     1051.700000       0.034840
     1051.800000       0.033838
     1051.900000       0.032834
     1052.000000       0.031829
     1052.100000       0.030826
     1052.200000       0.029827
     1052.300000       0.028834
     1052.400000       0.027854
     1052.500000       0.026892
     1052.600000       0.025953
     1052.700000       0.025043
     1052.800000       0.024167
     1052.900000       0.023331
     1053.000000       0.022537
     1053.100000       0.021790
     1053.200000       0.021090
     1053.300000       0.020437
     1053.400000       0.019832
     1053.500000       0.019273
     1053.600000       0.018756
     1053.700000       0.018277
     1053.800000       0.017831
     1053.900000       0.017414
     1054.000000       0.017018
     1054.100000       0.016640
     1054.200000       0.016272
     1054.300000       0.015911
     1054.400000       0.015550
     1054.500000       0.015187
     1054.600000       0.014817
     1054.700000       0.014439
     1054.800000       0.014052
     1054.900000       0.013654
     1055.000000       0.013246
     1055.100000       0.012830
     1055.200000       0.012407
     1055.300000       0.011981
     1055.400000       0.011554
     1055.500000       0.011131
     1055.600000       0.010715
     1055.700000       0.010309
     1055.800000       0.009918
     1055.900000       0.009543
     1056.000000       0.009188
     1056.100000       0.008853
     1056.200000       0.008540
     1056.300000       0.008251
     1056.400000       0.007984
     1056.500000       0.007740
     1056.600000       0.007515
     1056.700000       0.007310
     1056.800000       0.007120
     1056.900000       0.006944
     1057.000000       0.006779
     1057.100000       0.006621
     1057.200000       0.006468
     1057.300000       0.006318
     1057.400000       0.006169
     1057.500000       0.006019
     1057.600000       0.005868
     1057.700000       0.005716
     1057.800000       0.005563
     1057.900000       0.005411
     1058.000000       0.005260
     1058.100000       0.005114
     1058.200000       0.004974
     1058.300000       0.004843
     1058.400000       0.004721
     1058.500000       0.004612
     1058.600000       0.004515
     1058.700000       0.004432
     1058.800000       0.004363
     1058.900000       0.004309
     1059.000000       0.004267
     1059.100000       0.004236
     1059.200000       0.004216
     1059.300000       0.004202
     1059.400000       0.004192
     1059.500000       0.004182
     1059.600000       0.004169
     1059.700000       0.004151
     1059.800000       0.004124
     1059.900000       0.004086
     1060.000000       0.004035
     1060.100000       0.003971
     1060.200000       0.003894
     1060.300000       0.003804
     1060.400000       0.003703
     1060.500000       0.003591
     1060.600000       0.003471
     1060.700000       0.003346
     1060.800000       0.003216
     1060.900000       0.003086
     1061.000000       0.002955
     1061.100000       0.002828
     1061.200000       0.002705
     1061.300000       0.002588
     1061.400000       0.002477
     1061.500000       0.002374
     1061.600000       0.002277
     1061.700000       0.002187
     1061.800000       0.002101
     1061.900000       0.002019
     1062.000000       0.001938
     1062.100000       0.001857
     1062.200000       0.001775
     1062.300000       0.001691
     1062.400000       0.001605
     1062.500000       0.001519
     1062.600000       0.001432
     1062.700000       0.001346
     1062.800000       0.001264
     1062.900000       0.001188
     1063.000000       0.001118
     1063.100000       0.001057
     1063.200000       0.001006
     1063.300000       0.000965
     1063.400000       0.000938
     1063.500000       0.000923
     1063.600000       0.000000
