   3  ,noaa_18_hirs_03.flt
Number of data points:
961
Wavenumber (cm-1)   Filter response
      670.000000       0.000000
      670.050000       0.000686
      670.100000       0.000806
      670.150000       0.000960
      670.200000       0.000992
      670.250000       0.000865
      670.300000       0.000753
      670.350000       0.000661
      670.400000       0.000588
      670.450000       0.000534
      670.500000       0.000502
      670.550000       0.000489
      670.600000       0.000496
      670.650000       0.000522
      670.700000       0.000565
      670.750000       0.000623
      670.800000       0.000696
      670.850000       0.000781
      670.900000       0.000877
      670.950000       0.000981
      671.000000       0.001089
      671.050000       0.001202
      671.100000       0.001319
      671.150000       0.001438
      671.200000       0.001560
      671.250000       0.001682
      671.300000       0.001803
      671.350000       0.001923
      671.400000       0.002042
      671.450000       0.002159
      671.500000       0.002275
      671.550000       0.002390
      671.600000       0.002503
      671.650000       0.002616
      671.700000       0.002728
      671.750000       0.002841
      671.800000       0.002953
      671.850000       0.003066
      671.900000       0.003180
      671.950000       0.003294
      672.000000       0.003408
      672.050000       0.003522
      672.100000       0.003636
      672.150000       0.003749
      672.200000       0.003860
      672.250000       0.003969
      672.300000       0.004074
      672.350000       0.004176
      672.400000       0.004273
      672.450000       0.004365
      672.500000       0.004450
      672.550000       0.004530
      672.600000       0.004603
      672.650000       0.004669
      672.700000       0.004730
      672.750000       0.004784
      672.800000       0.004834
      672.850000       0.004880
      672.900000       0.004922
      672.950000       0.004964
      673.000000       0.005005
      673.050000       0.005048
      673.100000       0.005095
      673.150000       0.005147
      673.200000       0.005207
      673.250000       0.005275
      673.300000       0.005354
      673.350000       0.005444
      673.400000       0.005548
      673.450000       0.005666
      673.500000       0.005798
      673.550000       0.005946
      673.600000       0.006108
      673.650000       0.006285
      673.700000       0.006475
      673.750000       0.006678
      673.800000       0.006892
      673.850000       0.007116
      673.900000       0.007347
      673.950000       0.007585
      674.000000       0.007826
      674.050000       0.008069
      674.100000       0.008312
      674.150000       0.008552
      674.200000       0.008789
      674.250000       0.009019
      674.300000       0.009243
      674.350000       0.009459
      674.400000       0.009666
      674.450000       0.009865
      674.500000       0.010056
      674.550000       0.010239
      674.600000       0.010415
      674.650000       0.010586
      674.700000       0.010754
      674.750000       0.010920
      674.800000       0.011087
      674.850000       0.011258
      674.900000       0.011433
      674.950000       0.011618
      675.000000       0.011812
      675.050000       0.012020
      675.100000       0.012242
      675.150000       0.012481
      675.200000       0.012737
      675.250000       0.013013
      675.300000       0.013309
      675.350000       0.013625
      675.400000       0.013962
      675.450000       0.014319
      675.500000       0.014696
      675.550000       0.015090
      675.600000       0.015501
      675.650000       0.015927
      675.700000       0.016366
      675.750000       0.016816
      675.800000       0.017275
      675.850000       0.017741
      675.900000       0.018213
      675.950000       0.018689
      676.000000       0.019167
      676.050000       0.019646
      676.100000       0.020126
      676.150000       0.020607
      676.200000       0.021091
      676.250000       0.021577
      676.300000       0.022067
      676.350000       0.022563
      676.400000       0.023068
      676.450000       0.023584
      676.500000       0.024115
      676.550000       0.024663
      676.600000       0.025233
      676.650000       0.025828
      676.700000       0.026451
      676.750000       0.027106
      676.800000       0.027797
      676.850000       0.028527
      676.900000       0.029298
      676.950000       0.030112
      677.000000       0.030972
      677.050000       0.031879
      677.100000       0.032832
      677.150000       0.033832
      677.200000       0.034880
      677.250000       0.035976
      677.300000       0.037116
      677.350000       0.038301
      677.400000       0.039527
      677.450000       0.040793
      677.500000       0.042096
      677.550000       0.043433
      677.600000       0.044802
      677.650000       0.046199
      677.700000       0.047623
      677.750000       0.049071
      677.800000       0.050542
      677.850000       0.052033
      677.900000       0.053545
      677.950000       0.055078
      678.000000       0.056631
      678.050000       0.058209
      678.100000       0.059811
      678.150000       0.061438
      678.200000       0.063095
      678.250000       0.064784
      678.300000       0.066510
      678.350000       0.068277
      678.400000       0.069225
      678.450000       0.070955
      678.500000       0.072739
      678.550000       0.074587
      678.600000       0.076506
      678.650000       0.078505
      678.700000       0.080592
      678.750000       0.082775
      678.800000       0.085061
      678.850000       0.087457
      678.900000       0.089969
      678.950000       0.092601
      679.000000       0.095359
      679.050000       0.098248
      679.100000       0.101270
      679.150000       0.104430
      679.200000       0.107720
      679.250000       0.111150
      679.300000       0.114720
      679.350000       0.118430
      679.400000       0.122280
      679.450000       0.126270
      679.500000       0.130400
      679.550000       0.134670
      679.600000       0.139080
      679.650000       0.143630
      679.700000       0.148320
      679.750000       0.153150
      679.800000       0.158120
      679.850000       0.163240
      679.900000       0.168510
      679.950000       0.173920
      680.000000       0.179480
      680.050000       0.185200
      680.100000       0.191070
      680.150000       0.197090
      680.200000       0.203270
      680.250000       0.209610
      680.300000       0.216110
      680.350000       0.222770
      680.400000       0.229590
      680.450000       0.236570
      680.500000       0.243700
      680.550000       0.251000
      680.600000       0.258450
      680.650000       0.266050
      680.700000       0.273800
      680.750000       0.281700
      680.800000       0.289730
      680.850000       0.297900
      680.900000       0.306200
      680.950000       0.314630
      681.000000       0.323170
      681.050000       0.331820
      681.100000       0.340580
      681.150000       0.349440
      681.200000       0.358390
      681.250000       0.367420
      681.300000       0.376540
      681.350000       0.385730
      681.400000       0.394990
      681.450000       0.404320
      681.500000       0.413700
      681.550000       0.423140
      681.600000       0.432630
      681.650000       0.442170
      681.700000       0.451750
      681.750000       0.461370
      681.800000       0.471020
      681.850000       0.480690
      681.900000       0.490390
      681.950000       0.500110
      682.000000       0.509840
      682.050000       0.519630
      682.100000       0.529420
      682.150000       0.539200
      682.200000       0.548970
      682.250000       0.558700
      682.300000       0.568390
      682.350000       0.578020
      682.400000       0.587600
      682.450000       0.597090
      682.500000       0.606490
      682.550000       0.615790
      682.600000       0.624970
      682.650000       0.634010
      682.700000       0.642910
      682.750000       0.651650
      682.800000       0.660220
      682.850000       0.668600
      682.900000       0.676770
      682.950000       0.684740
      683.000000       0.692490
      683.050000       0.700010
      683.100000       0.707300
      683.150000       0.714350
      683.200000       0.721150
      683.250000       0.727700
      683.300000       0.734010
      683.350000       0.740060
      683.400000       0.745860
      683.450000       0.751410
      683.500000       0.756720
      683.550000       0.761790
      683.600000       0.766610
      683.650000       0.771210
      683.700000       0.775580
      683.750000       0.779730
      683.800000       0.783660
      683.850000       0.787390
      683.900000       0.790920
      683.950000       0.794260
      684.000000       0.797410
      684.050000       0.800250
      684.100000       0.802920
      684.150000       0.805420
      684.200000       0.807750
      684.250000       0.809930
      684.300000       0.811940
      684.350000       0.813810
      684.400000       0.815520
      684.450000       0.817080
      684.500000       0.818500
      684.550000       0.819780
      684.600000       0.820920
      684.650000       0.821920
      684.700000       0.822780
      684.750000       0.823510
      684.800000       0.824110
      684.850000       0.824570
      684.900000       0.824920
      684.950000       0.825140
      685.000000       0.825250
      685.050000       0.825250
      685.100000       0.825140
      685.150000       0.824940
      685.200000       0.824650
      685.250000       0.824270
      685.300000       0.823810
      685.350000       0.823290
      685.400000       0.822700
      685.450000       0.822060
      685.500000       0.821380
      685.550000       0.820660
      685.600000       0.819910
      685.650000       0.819140
      685.700000       0.818360
      685.750000       0.817570
      685.800000       0.816790
      685.850000       0.816010
      685.900000       0.815240
      685.950000       0.814490
      686.000000       0.813780
      686.050000       0.813330
      686.100000       0.812910
      686.150000       0.812520
      686.200000       0.812170
      686.250000       0.811860
      686.300000       0.811580
      686.350000       0.811340
      686.400000       0.811150
      686.450000       0.810990
      686.500000       0.810880
      686.550000       0.810810
      686.600000       0.810770
      686.650000       0.810780
      686.700000       0.810830
      686.750000       0.810920
      686.800000       0.811050
      686.850000       0.811220
      686.900000       0.811430
      686.950000       0.811680
      687.000000       0.811970
      687.050000       0.812290
      687.100000       0.812660
      687.150000       0.813070
      687.200000       0.813520
      687.250000       0.814010
      687.300000       0.814550
      687.350000       0.815130
      687.400000       0.815760
      687.450000       0.816440
      687.500000       0.817160
      687.550000       0.817930
      687.600000       0.818760
      687.650000       0.819630
      687.700000       0.820560
      687.750000       0.821540
      687.800000       0.822570
      687.850000       0.823650
      687.900000       0.824790
      687.950000       0.825980
      688.000000       0.827230
      688.050000       0.828640
      688.100000       0.830100
      688.150000       0.831610
      688.200000       0.833180
      688.250000       0.834800
      688.300000       0.836480
      688.350000       0.838210
      688.400000       0.840000
      688.450000       0.841830
      688.500000       0.843720
      688.550000       0.845670
      688.600000       0.847660
      688.650000       0.849700
      688.700000       0.851790
      688.750000       0.853920
      688.800000       0.856100
      688.850000       0.858330
      688.900000       0.860620
      688.950000       0.862940
      689.000000       0.865320
      689.050000       0.867740
      689.100000       0.870200
      689.150000       0.872700
      689.200000       0.875240
      689.250000       0.877830
      689.300000       0.880440
      689.350000       0.883100
      689.400000       0.885780
      689.450000       0.888490
      689.500000       0.891230
      689.550000       0.893990
      689.600000       0.896770
      689.650000       0.899560
      689.700000       0.902370
      689.750000       0.905190
      689.800000       0.908010
      689.850000       0.910840
      689.900000       0.913670
      689.950000       0.916490
      690.000000       0.919300
      690.050000       0.921690
      690.100000       0.924070
      690.150000       0.926440
      690.200000       0.928790
      690.250000       0.931120
      690.300000       0.933430
      690.350000       0.935720
      690.400000       0.937990
      690.450000       0.940240
      690.500000       0.942470
      690.550000       0.944670
      690.600000       0.946850
      690.650000       0.949010
      690.700000       0.951140
      690.750000       0.953250
      690.800000       0.955340
      690.850000       0.957410
      690.900000       0.959450
      690.950000       0.961480
      691.000000       0.963480
      691.050000       0.965450
      691.100000       0.967410
      691.150000       0.969340
      691.200000       0.971240
      691.250000       0.973110
      691.300000       0.974960
      691.350000       0.976770
      691.400000       0.978560
      691.450000       0.980300
      691.500000       0.982000
      691.550000       0.983660
      691.600000       0.985260
      691.650000       0.986820
      691.700000       0.988310
      691.750000       0.989730
      691.800000       0.991090
      691.850000       0.992360
      691.900000       0.993550
      691.950000       0.994660
      692.000000       0.995670
      692.050000       0.996630
      692.100000       0.997490
      692.150000       0.998240
      692.200000       0.998860
      692.250000       0.999350
      692.300000       0.999710
      692.350000       0.999930
      692.400000       1.000000
      692.450000       0.999920
      692.500000       0.999700
      692.550000       0.999340
      692.600000       0.998830
      692.650000       0.998140
      692.700000       0.997290
      692.750000       0.996270
      692.800000       0.995070
      692.850000       0.993690
      692.900000       0.992140
      692.950000       0.990410
      693.000000       0.988510
      693.050000       0.986410
      693.100000       0.984140
      693.150000       0.981690
      693.200000       0.979060
      693.250000       0.976250
      693.300000       0.973270
      693.350000       0.970110
      693.400000       0.966770
      693.450000       0.963260
      693.500000       0.959570
      693.550000       0.955720
      693.600000       0.951690
      693.650000       0.947490
      693.700000       0.943120
      693.750000       0.938580
      693.800000       0.933880
      693.850000       0.929010
      693.900000       0.923980
      693.950000       0.918780
      694.000000       0.913420
      694.050000       0.907900
      694.100000       0.902230
      694.150000       0.896390
      694.200000       0.890400
      694.250000       0.884250
      694.300000       0.877950
      694.350000       0.871490
      694.400000       0.864880
      694.450000       0.858140
      694.500000       0.851270
      694.550000       0.844250
      694.600000       0.837080
      694.650000       0.829790
      694.700000       0.822350
      694.750000       0.814790
      694.800000       0.807100
      694.850000       0.799300
      694.900000       0.791370
      694.950000       0.783330
      695.000000       0.775190
      695.050000       0.766940
      695.100000       0.758600
      695.150000       0.750170
      695.200000       0.741650
      695.250000       0.733060
      695.300000       0.724390
      695.350000       0.715660
      695.400000       0.706870
      695.450000       0.698030
      695.500000       0.689150
      695.550000       0.680230
      695.600000       0.671270
      695.650000       0.662300
      695.700000       0.653300
      695.750000       0.644300
      695.800000       0.635290
      695.850000       0.626290
      695.900000       0.617290
      695.950000       0.608310
      696.000000       0.599350
      696.050000       0.590410
      696.100000       0.581500
      696.150000       0.572620
      696.200000       0.563790
      696.250000       0.555000
      696.300000       0.546260
      696.350000       0.537580
      696.400000       0.528960
      696.450000       0.520400
      696.500000       0.511900
      696.550000       0.503470
      696.600000       0.495090
      696.650000       0.486790
      696.700000       0.478550
      696.750000       0.470380
      696.800000       0.462270
      696.850000       0.454240
      696.900000       0.446270
      696.950000       0.438370
      697.000000       0.430550
      697.050000       0.422790
      697.100000       0.415110
      697.150000       0.407500
      697.200000       0.399960
      697.250000       0.392500
      697.300000       0.385110
      697.350000       0.377800
      697.400000       0.370570
      697.450000       0.363420
      697.500000       0.356360
      697.550000       0.349380
      697.600000       0.342490
      697.650000       0.335700
      697.700000       0.328990
      697.750000       0.322390
      697.800000       0.315890
      697.850000       0.309480
      697.900000       0.303190
      697.950000       0.297010
      698.000000       0.290930
      698.050000       0.284940
      698.100000       0.279060
      698.150000       0.273290
      698.200000       0.267650
      698.250000       0.262120
      698.300000       0.256710
      698.350000       0.251420
      698.400000       0.246240
      698.450000       0.241180
      698.500000       0.236230
      698.550000       0.231380
      698.600000       0.226640
      698.650000       0.222010
      698.700000       0.217470
      698.750000       0.213030
      698.800000       0.208670
      698.850000       0.204410
      698.900000       0.200230
      698.950000       0.196120
      699.000000       0.192100
      699.050000       0.188140
      699.100000       0.184250
      699.150000       0.180440
      699.200000       0.176680
      699.250000       0.172990
      699.300000       0.169360
      699.350000       0.165800
      699.400000       0.162290
      699.450000       0.158840
      699.500000       0.155460
      699.550000       0.152140
      699.600000       0.148870
      699.650000       0.145680
      699.700000       0.142550
      699.750000       0.139480
      699.800000       0.136490
      699.850000       0.133570
      699.900000       0.130710
      699.950000       0.127940
      700.000000       0.125230
      700.050000       0.122610
      700.100000       0.120070
      700.150000       0.117590
      700.200000       0.115200
      700.250000       0.112880
      700.300000       0.110630
      700.350000       0.108450
      700.400000       0.106340
      700.450000       0.104290
      700.500000       0.102300
      700.550000       0.100370
      700.600000       0.098497
      700.650000       0.096670
      700.700000       0.094889
      700.750000       0.093148
      700.800000       0.091445
      700.850000       0.089774
      700.900000       0.088132
      700.950000       0.086516
      701.000000       0.084921
      701.050000       0.083346
      701.100000       0.081788
      701.150000       0.080246
      701.200000       0.078717
      701.250000       0.077201
      701.300000       0.075697
      701.350000       0.074207
      701.400000       0.072730
      701.450000       0.071267
      701.500000       0.069820
      701.550000       0.068390
      701.600000       0.066980
      701.650000       0.065592
      701.700000       0.064228
      701.750000       0.062890
      701.800000       0.061580
      701.850000       0.060301
      701.900000       0.059054
      701.950000       0.057841
      702.000000       0.056663
      702.050000       0.055519
      702.100000       0.054412
      702.150000       0.053342
      702.200000       0.052309
      702.250000       0.051312
      702.300000       0.050350
      702.350000       0.049421
      702.400000       0.048524
      702.450000       0.047656
      702.500000       0.046815
      702.550000       0.045999
      702.600000       0.045204
      702.650000       0.044429
      702.700000       0.043670
      702.750000       0.042925
      702.800000       0.042192
      702.850000       0.041468
      702.900000       0.040752
      702.950000       0.040041
      703.000000       0.039336
      703.050000       0.038634
      703.100000       0.037936
      703.150000       0.037242
      703.200000       0.036551
      703.250000       0.035865
      703.300000       0.035184
      703.350000       0.034510
      703.400000       0.033844
      703.450000       0.033188
      703.500000       0.032544
      703.550000       0.031913
      703.600000       0.031297
      703.650000       0.030698
      703.700000       0.030118
      703.750000       0.029556
      703.800000       0.029015
      703.850000       0.028496
      703.900000       0.027998
      703.950000       0.027521
      704.000000       0.027065
      704.050000       0.026628
      704.100000       0.026209
      704.150000       0.025808
      704.200000       0.025422
      704.250000       0.025050
      704.300000       0.024688
      704.350000       0.024336
      704.400000       0.023989
      704.450000       0.023645
      704.500000       0.023302
      704.550000       0.022957
      704.600000       0.022609
      704.650000       0.022254
      704.700000       0.021893
      704.750000       0.021522
      704.800000       0.021142
      704.850000       0.020752
      704.900000       0.020352
      704.950000       0.019943
      705.000000       0.019526
      705.050000       0.019103
      705.100000       0.018674
      705.150000       0.018243
      705.200000       0.017811
      705.250000       0.017382
      705.300000       0.016958
      705.350000       0.016542
      705.400000       0.016138
      705.450000       0.015748
      705.500000       0.015375
      705.550000       0.015020
      705.600000       0.015068
      705.650000       0.014778
      705.700000       0.014503
      705.750000       0.014246
      705.800000       0.014006
      705.850000       0.013782
      705.900000       0.013574
      705.950000       0.013381
      706.000000       0.013203
      706.050000       0.013038
      706.100000       0.012884
      706.150000       0.012738
      706.200000       0.012600
      706.250000       0.012468
      706.300000       0.012338
      706.350000       0.012208
      706.400000       0.012078
      706.450000       0.011944
      706.500000       0.011804
      706.550000       0.011658
      706.600000       0.011504
      706.650000       0.011340
      706.700000       0.011165
      706.750000       0.010979
      706.800000       0.010782
      706.850000       0.010573
      706.900000       0.010353
      706.950000       0.010122
      707.000000       0.009882
      707.050000       0.009633
      707.100000       0.009376
      707.150000       0.009114
      707.200000       0.008847
      707.250000       0.008579
      707.300000       0.008309
      707.350000       0.008041
      707.400000       0.007775
      707.450000       0.007515
      707.500000       0.007260
      707.550000       0.007013
      707.600000       0.006775
      707.650000       0.006548
      707.700000       0.006330
      707.750000       0.006125
      707.800000       0.005931
      707.850000       0.005750
      707.900000       0.005580
      707.950000       0.005422
      708.000000       0.005276
      708.050000       0.005140
      708.100000       0.005015
      708.150000       0.004899
      708.200000       0.004792
      708.250000       0.004692
      708.300000       0.004599
      708.350000       0.004512
      708.400000       0.004430
      708.450000       0.004353
      708.500000       0.004279
      708.550000       0.004209
      708.600000       0.004141
      708.650000       0.004077
      708.700000       0.004014
      708.750000       0.003955
      708.800000       0.003897
      708.850000       0.003843
      708.900000       0.003791
      708.950000       0.003742
      709.000000       0.003696
      709.050000       0.003654
      709.100000       0.003616
      709.150000       0.003582
      709.200000       0.003552
      709.250000       0.003526
      709.300000       0.003505
      709.350000       0.003487
      709.400000       0.003474
      709.450000       0.003464
      709.500000       0.003457
      709.550000       0.003452
      709.600000       0.003450
      709.650000       0.003449
      709.700000       0.003448
      709.750000       0.003446
      709.800000       0.003444
      709.850000       0.003439
      709.900000       0.003432
      709.950000       0.003422
      710.000000       0.003407
      710.050000       0.003388
      710.100000       0.003364
      710.150000       0.003334
      710.200000       0.003300
      710.250000       0.003260
      710.300000       0.003215
      710.350000       0.003166
      710.400000       0.003112
      710.450000       0.003055
      710.500000       0.002994
      710.550000       0.002931
      710.600000       0.002866
      710.650000       0.002800
      710.700000       0.002734
      710.750000       0.002668
      710.800000       0.002603
      710.850000       0.002539
      710.900000       0.002478
      710.950000       0.002418
      711.000000       0.002361
      711.050000       0.002307
      711.100000       0.002255
      711.150000       0.002206
      711.200000       0.002159
      711.250000       0.002114
      711.300000       0.002071
      711.350000       0.002029
      711.400000       0.001987
      711.450000       0.001945
      711.500000       0.001903
      711.550000       0.001860
      711.600000       0.001816
      711.650000       0.001771
      711.700000       0.001723
      711.750000       0.001674
      711.800000       0.001623
      711.850000       0.001571
      711.900000       0.001518
      711.950000       0.001464
      712.000000       0.001410
      712.050000       0.001357
      712.100000       0.001305
      712.150000       0.001255
      712.200000       0.001208
      712.250000       0.001164
      712.300000       0.001125
      712.350000       0.001090
      712.400000       0.001060
      712.450000       0.001036
      712.500000       0.001018
      712.550000       0.001006
      712.600000       0.001000
      712.650000       0.000999
      712.700000       0.001003
      712.750000       0.001011
      712.800000       0.001023
      712.850000       0.001037
      712.900000       0.001052
      712.950000       0.001067
      713.000000       0.001081
      713.050000       0.001093
      713.100000       0.001100
      713.150000       0.001103
      713.200000       0.001100
      713.250000       0.001090
      713.300000       0.001073
      713.350000       0.001048
      713.400000       0.001016
      713.450000       0.000976
      713.500000       0.000929
      713.550000       0.000876
      713.600000       0.000823
      713.650000       0.000769
      713.700000       0.000715
      713.750000       0.000660
      713.800000       0.000604
      713.850000       0.000546
      713.900000       0.000491
      713.950000       0.000440
      714.000000       0.000397
      714.050000       0.000363
      714.100000       0.000340
      714.150000       0.000329
      714.200000       0.000331
      714.250000       0.000346
      714.300000       0.000374
      714.350000       0.000415
      714.400000       0.000469
      714.450000       0.000533
      714.500000       0.000608
      714.550000       0.000690
      714.600000       0.000778
      714.650000       0.000864
      714.700000       0.000947
      714.750000       0.001027
      714.800000       0.001103
      714.850000       0.001174
      714.900000       0.001240
      714.950000       0.001297
      715.000000       0.001342
      715.050000       0.001374
      715.100000       0.001390
      715.150000       0.001390
      715.200000       0.001374
      715.250000       0.001342
      715.300000       0.001296
      715.350000       0.001241
      715.400000       0.001181
      715.450000       0.001119
      715.500000       0.001052
      715.550000       0.000980
      715.600000       0.000903
      715.650000       0.000820
      715.700000       0.000736
      715.750000       0.000658
      715.800000       0.000591
      715.850000       0.000539
      715.900000       0.000503
      715.950000       0.000486
      716.000000       0.000490
      716.050000       0.000515
      716.100000       0.000562
      716.150000       0.000630
      716.200000       0.000719
      716.250000       0.000827
      716.300000       0.000953
      716.350000       0.001092
      716.400000       0.001239
      716.450000       0.001385
      716.500000       0.001530
      716.550000       0.001674
      716.600000       0.001815
      716.650000       0.001953
      716.700000       0.002089
      716.750000       0.002218
      716.800000       0.002333
      716.850000       0.002428
      716.900000       0.002502
      716.950000       0.002553
      717.000000       0.002580
      717.050000       0.002584
      717.100000       0.002564
      717.150000       0.002523
      717.200000       0.002462
      717.250000       0.002383
      717.300000       0.002290
      717.350000       0.002186
      717.400000       0.002074
      717.450000       0.001961
      717.500000       0.001704
      717.550000       0.001478
      717.600000       0.001270
      717.650000       0.001085
      717.700000       0.000930
      717.750000       0.000811
      717.800000       0.000731
      717.850000       0.000696
      717.900000       0.000706
      717.950000       0.000764
      718.000000       0.000000
